File: projects/Muestras y catálogo/Older versions/Raman_v1.0/Muestras_12-11-24/Data/Muestra 2_100x_zona2_rojo.txt
-174.488	1149.2
-155.697	1149.1
-136.943	1149.4
-118.226	1149.1
-99.5451	1147.1
-80.9009	1147.7
-62.2932	1149
-43.7218	1146.8
-25.1866	1148
-6.6877	1146.6
11.7752	1147.8
30.202	1147.2
48.593	1149.4
66.9481	1148.4
85.2675	1315
103.551	1417.4
121.799	1392.5
140.012	1366.7
158.189	1356.9
176.332	1350.9
194.438	1341
212.51	1341.4
230.547	1376.4
248.548	1384.4
266.515	1403.3
284.447	1415
302.345	1494.4
320.208	1427.4
338.036	1378.1
355.83	1362.5
373.589	1354.2
391.314	1336.3
409.005	1330.9
426.662	1335.1
444.285	1320.1
461.874	1285
479.429	1312.3
496.95	1408.8
514.438	4925.2
531.892	2376.4
549.312	1423.2
566.699	1326.8
584.053	1294
601.373	1291.1
618.66	1316.5
635.914	1296.2
653.135	1301.1
670.324	1302.4
687.479	1291.2
704.601	1264
721.691	1266.8
738.748	1263.7
755.772	1260.1
772.764	1270
789.724	1274.2
806.651	1289.5
823.546	1296.7
840.409	1289.9
857.24	1284.6
874.039	1284.8
890.806	1294.1
907.541	1298.8
924.244	1346.8
940.915	1646.3
957.555	1666.1
974.164	1665.8
990.741	1528.9
1007.29	1357.8
1023.8	1312.4
1040.28	1262.6
1056.74	1254.1
1073.16	1251.1
1089.55	1252.4
1105.91	1248
1122.23	1244
1138.53	1247.8
1154.8	1246.1
1171.03	1248.3
1187.24	1249.9
1203.41	1257.4
1219.56	1256.1
1235.67	1255.1
1251.76	1258.2
1267.81	1258.7
1283.83	1260.7
1299.83	1268.6
1315.79	1272.4
1331.73	1289.3
1347.63	1296.1
1363.5	1277.5
1379.35	1269
1395.16	1274.7
1410.95	1269.1
1426.71	1272.9
1442.43	1268.1
1458.13	1262.4
1473.8	1261
1489.44	1264.8
1505.05	1273.2
1520.63	1273.9
1536.18	1282.8
1551.71	1314.9
1567.2	1456.1
1582.67	1677.5
1598.11	1379.5
1613.51	1305
1628.89	1284.3
1644.25	1267.5
1659.57	1253
1674.87	1255.7
1690.13	1251.9
1705.37	1251.6
1720.58	1252.4
1735.77	1247.3
1750.92	1249.7
1766.05	1249
1781.15	1251.2
1796.22	1248.6
1811.26	1241.3
1826.28	1247.1
1841.27	1248.8
1856.23	1250.9
1871.17	1248.5
1886.07	1245.1
1900.95	1245.5
1915.81	1238.3
1930.63	1243.8
1945.43	1247.3
1960.2	1246.4
1974.95	1244.7
1989.67	1247.8
2004.36	1245.8
2019.02	1246.1
2033.66	1247.3
2048.27	1244.7
2062.86	1239.7
2077.42	1242
2091.95	1234.7
2106.46	1237.3
2120.94	1241.4
2135.39	1239.8
2149.82	1245.7
2164.22	1241.5
2178.6	1242.5
2192.95	1240.2
2207.28	1240
2221.57	1242.5
2235.85	1243.4
2250.1	1235.8
2264.32	1240.2
2278.52	1244.8
2292.69	1242.7
2306.83	1243.4
2320.95	1245.6
2335.05	1238.4
2349.12	1239.4
2363.17	1234.1
2377.19	1243.4
2391.18	1244
2405.15	1245.6
2419.1	1247.3
2433.02	1263.7
2446.92	1278.2
2460.79	1265.9
2474.64	1265.1
2488.46	1253
2502.26	1247.4
2516.04	1249.8
2529.79	1248.6
2543.51	1242
2557.22	1240.6
2570.89	1247.1
2584.55	1258.6
2598.18	1264
2611.79	1292.8
2625.37	1351.4
2638.93	1488.1
2652.46	1782.2
2665.97	2013.4
2679.46	1839
2692.93	1540.7
2706.37	1366.6
2719.79	1299.7
2733.18	1270.7
2746.55	1253.6
2759.9	1243.1
2773.22	1243.4
2786.53	1229.5
2799.81	1226.4
2813.06	1234.6
2826.3	1226.5
2839.51	1223.1
2852.69	1224.1
2865.86	1228.4
2879	1224.8
2892.12	1225
2905.22	1218.7
2918.29	1215.3
2931.35	1220.4
2944.38	1210.2
2957.38	1218.3
2970.37	1216.3
2983.33	1211.4
2996.27	1211.5
3009.19	1216.7
3022.09	1207.9
3034.97	1205.6
3047.82	1205.2
3060.65	1200.8
3073.46	1202
3086.25	1204.9
3099.02	1202.9
3111.77	1205.2
3124.49	1204.5
3137.19	1199
3149.87	1197
3162.53	1202.5
3175.17	1201.7
3187.79	1198.4
3200.39	1201.1
3212.96	1197.3
3225.52	1215.5
3238.05	1225
3250.56	1208.5
3263.05	1198.6
3275.52	1193.5
3287.97	1190.9
3300.4	1187
3312.81	1187.9
3325.2	1192.5
3337.57	1186.9
3349.92	1187.9
3362.24	1188.3
3374.55	1187.1
3386.83	1187.3
3399.1	1182.1
3411.35	1184.3
3423.57	1185.3
3435.78	1176.3
3447.96	1180.6
3460.13	1180.5
3472.27	1174
3484.4	1175.1
3496.5	1181
3508.59	1178.3
3520.66	1176.1
3532.7	1174.4
3544.73	1178
3556.74	1172.8
3568.73	1172
3580.7	1175.6
3592.64	1172.2
3604.57	1172.3
3616.48	1169.9
3628.38	1168.9
3640.25	1173.8
3652.1	1166.3
3663.94	1172.3
3675.75	1170.8
3687.55	1172.9
3699.32	1168.9
3711.08	1166.5
3722.82	1162.8
3734.54	1167.2
3746.24	1167.9
3757.92	1164.2
3769.59	1167.1
3775.41	1165.7