File: projects/Muestras y catálogo/Older versions/Raman_v1.0/Muestras_12-11-24/Data/Muestra 3_20x_zona1_rojo.txt
-174.488	1148.3
-155.697	1146
-136.943	1147.2
-118.226	1146.3
-99.5451	1148
-80.9009	1146.6
-62.2932	1148.6
-43.7218	1150.6
-25.1866	1148.9
-6.6877	1149.7
11.7752	1152.5
30.202	1148.6
48.593	1148.8
66.9481	1149.4
85.2675	1295.1
103.551	1381.9
121.799	1345.6
140.012	1321.7
158.189	1304.1
176.332	1294.9
194.438	1289.7
212.51	1282
230.547	1294.7
248.548	1309.6
266.515	1310.5
284.447	1318.1
302.345	1358.4
320.208	1311.3
338.036	1284.9
355.83	1277.1
373.589	1259.1
391.314	1252.1
409.005	1244.6
426.662	1241.8
444.285	1228.9
461.874	1206.9
479.429	1219.7
496.95	1276
514.438	3182.1
531.892	2155.9
549.312	1456.4
566.699	1323.1
584.053	1287.6
601.373	1275.1
618.66	1297.2
635.914	1273
653.135	1262.1
670.324	1262.3
687.479	1253.5
704.601	1243.8
721.691	1234.4
738.748	1231.7
755.772	1236.8
772.764	1229.6
789.724	1235.2
806.651	1238.9
823.546	1240.3
840.409	1234.9
857.24	1231.3
874.039	1231
890.806	1239.3
907.541	1239.8
924.244	1268.6
940.915	1426.2
957.555	1423.9
974.164	1449.5
990.741	1358.9
1007.29	1267.8
1023.8	1234.4
1040.28	1211.4
1056.74	1209.3
1073.16	1203.9
1089.55	1200.9
1105.91	1205.5
1122.23	1202.1
1138.53	1198.4
1154.8	1197.1
1171.03	1199.9
1187.24	1197.8
1203.41	1203.5
1219.56	1200.2
1235.67	1204.2
1251.76	1197.9
1267.81	1201.5
1283.83	1193.1
1299.83	1194.6
1315.79	1196.9
1331.73	1197
1347.63	1196.5
1363.5	1194.3
1379.35	1194.1
1395.16	1192.7
1410.95	1194
1426.71	1192.4
1442.43	1200.8
1458.13	1190.2
1473.8	1192.4
1489.44	1185.6
1505.05	1185.8
1520.63	1185.3
1536.18	1182.4
1551.71	1188.3
1567.2	1189
1582.67	1187.9
1598.11	1186.8
1613.51	1189.5
1628.89	1182.6
1644.25	1186.6
1659.57	1190.7
1674.87	1185.2
1690.13	1179.2
1705.37	1177.5
1720.58	1177.9
1735.77	1180.8
1750.92	1179.4
1766.05	1183.7
1781.15	1179
1796.22	1182.8
1811.26	1181.9
1826.28	1181.8
1841.27	1175.9
1856.23	1179.2
1871.17	1178.4
1886.07	1178.9
1900.95	1176.2
1915.81	1177.5
1930.63	1181.4
1945.43	1178
1960.2	1180.8
1974.95	1175.1
1989.67	1175.8
2004.36	1177.1
2019.02	1175.6
2033.66	1181.3
2048.27	1177.5
2062.86	1173.2
2077.42	1176.6
2091.95	1176.6
2106.46	1180.5
2120.94	1174.9
2135.39	1176.8
2149.82	1178.6
2164.22	1181.5
2178.6	1176.8
2192.95	1175.8
2207.28	1175.3
2221.57	1178.3
2235.85	1175.9
2250.1	1176.9
2264.32	1173
2278.52	1179.2
2292.69	1175.4
2306.83	1172.5
2320.95	1169
2335.05	1172.8
2349.12	1173.1
2363.17	1174.2
2377.19	1174.1
2391.18	1173.8
2405.15	1170.9
2419.1	1169.4
2433.02	1174.2
2446.92	1173.9
2460.79	1174.8
2474.64	1175.5
2488.46	1175.3
2502.26	1173.9
2516.04	1172.4
2529.79	1171.9
2543.51	1173.4
2557.22	1173.8
2570.89	1169.1
2584.55	1172.2
2598.18	1173.7
2611.79	1172.3
2625.37	1175.4
2638.93	1173.3
2652.46	1171.5
2665.97	1173.5
2679.46	1173.4
2692.93	1169.1
2706.37	1173.5
2719.79	1171.1
2733.18	1171
2746.55	1172.4
2759.9	1171.9
2773.22	1173
2786.53	1174.8
2799.81	1169
2813.06	1171
2826.3	1171.4
2839.51	1169.5
2852.69	1179.6
2865.86	1176.2
2879	1184.8
2892.12	1185.3
2905.22	1189.7
2918.29	1188.7
2931.35	1189.1
2944.38	1187.8
2957.38	1180.3
2970.37	1174.5
2983.33	1173.5
2996.27	1174.3
3009.19	1172.5
3022.09	1171.5
3034.97	1167.4
3047.82	1166.8
3060.65	1171.2
3073.46	1166.3
3086.25	1165
3099.02	1166.2
3111.77	1164.5
3124.49	1165.1
3137.19	1165.9
3149.87	1165.1
3162.53	1167.8
3175.17	1166.2
3187.79	1165.6
3200.39	1165
3212.96	1165.7
3225.52	1163.3
3238.05	1164.8
3250.56	1164
3263.05	1163.6
3275.52	1167.1
3287.97	1168.6
3300.4	1166.7
3312.81	1164.8
3325.2	1163.1
3337.57	1160.8
3349.92	1163.8
3362.24	1163.7
3374.55	1162.7
3386.83	1161.3
3399.1	1167.5
3411.35	1159.8
3423.57	1163.5
3435.78	1162.6
3447.96	1161.5
3460.13	1159.3
3472.27	1160.8
3484.4	1159.5
3496.5	1156.6
3508.59	1162.5
3520.66	1162.9
3532.7	1160.9
3544.73	1160.8
3556.74	1159.6
3568.73	1159.4
3580.7	1161.9
3592.64	1159.2
3604.57	1159.3
3616.48	1158.3
3628.38	1153.8
3640.25	1159.2
3652.1	1159.1
3663.94	1158.9
3675.75	1155.3
3687.55	1155.1
3699.32	1158.5
3711.08	1155.9
3722.82	1159.7
3734.54	1153.4
3746.24	1157
3757.92	1155.6
3769.59	1154.1
3775.41	1156.1