File: projects/Muestras y catálogo/Older versions/Raman_v1.0/Muestras_12-11-24/Data/Muestra 2_100x_zona2_cian.txt
-174.488	1147.1
-155.697	1146.4
-136.943	1146.8
-118.226	1146.7
-99.5451	1149
-80.9009	1149.2
-62.2932	1146.7
-43.7218	1149.6
-25.1866	1146.8
-6.6877	1149
11.7752	1151.6
30.202	1147.6
48.593	1146.8
66.9481	1147.3
85.2675	1406.1
103.551	1583.9
121.799	1540.5
140.012	1517.6
158.189	1519.1
176.332	1500.2
194.438	1498.2
212.51	1514.6
230.547	1532.6
248.548	1559.2
266.515	1565.9
284.447	1590.9
302.345	1658
320.208	1598.5
338.036	1546.6
355.83	1550.5
373.589	1517.4
391.314	1516.9
409.005	1517.9
426.662	1523.7
444.285	1503.5
461.874	1483.9
479.429	1496.8
496.95	1581.6
514.438	4869.7
531.892	2485.3
549.312	1615.3
566.699	1519.5
584.053	1491
601.373	1505.5
618.66	1513
635.914	1500.5
653.135	1502.5
670.324	1501.6
687.479	1481.3
704.601	1475.2
721.691	1472.7
738.748	1463.7
755.772	1481.6
772.764	1487.6
789.724	1481.3
806.651	1491.8
823.546	1507.4
840.409	1516.4
857.24	1519.8
874.039	1507.9
890.806	1515.7
907.541	1535.1
924.244	1556.6
940.915	1853.7
957.555	1882.6
974.164	1896.2
990.741	1754.2
1007.29	1603.5
1023.8	1549.7
1040.28	1527.7
1056.74	1515.2
1073.16	1504.2
1089.55	1526.2
1105.91	1536.3
1122.23	1539.7
1138.53	1551.3
1154.8	1559.2
1171.03	1573.4
1187.24	1598.4
1203.41	1598.9
1219.56	1632.9
1235.67	1650
1251.76	1659.6
1267.81	1666.1
1283.83	1700.9
1299.83	1727
1315.79	1794.4
1331.73	1879.7
1347.63	1952.7
1363.5	1824.1
1379.35	1803.7
1395.16	1739.6
1410.95	1724.5
1426.71	1730.7
1442.43	1718.4
1458.13	1727.9
1473.8	1718.9
1489.44	1721.8
1505.05	1734.9
1520.63	1783.5
1536.18	1808
1551.71	1951.9
1567.2	2466.8
1582.67	2874.2
1598.11	2104.5
1613.51	1914.9
1628.89	1764.5
1644.25	1657.6
1659.57	1604
1674.87	1589.9
1690.13	1577.4
1705.37	1553.5
1720.58	1561.7
1735.77	1557
1750.92	1555.5
1766.05	1558.2
1781.15	1554.9
1796.22	1548.5
1811.26	1549.2
1826.28	1540
1841.27	1549.6
1856.23	1529.5
1871.17	1538.8
1886.07	1555.4
1900.95	1533
1915.81	1539.6
1930.63	1538.7
1945.43	1530.2
1960.2	1525.3
1974.95	1531.6
1989.67	1524.3
2004.36	1542.8
2019.02	1523.3
2033.66	1539.6
2048.27	1540.9
2062.86	1527.2
2077.42	1528
2091.95	1520.8
2106.46	1517.2
2120.94	1512.7
2135.39	1524.8
2149.82	1514.5
2164.22	1510.9
2178.6	1501.2
2192.95	1512.9
2207.28	1522.1
2221.57	1514.6
2235.85	1510.5
2250.1	1503.7
2264.32	1500.9
2278.52	1501.5
2292.69	1491.3
2306.83	1510
2320.95	1484.5
2335.05	1499.1
2349.12	1508
2363.17	1512.8
2377.19	1503.8
2391.18	1507.4
2405.15	1512
2419.1	1511.5
2433.02	1543.6
2446.92	1557.8
2460.79	1556.2
2474.64	1532.9
2488.46	1515.6
2502.26	1517.5
2516.04	1515.6
2529.79	1510
2543.51	1516.6
2557.22	1512.7
2570.89	1508.4
2584.55	1525.2
2598.18	1527.6
2611.79	1550.2
2625.37	1596
2638.93	1709.1
2652.46	1955.1
2665.97	2264.6
2679.46	2439
2692.93	2220.8
2706.37	1869.3
2719.79	1663.1
2733.18	1560.9
2746.55	1528
2759.9	1508
2773.22	1489.5
2786.53	1459.5
2799.81	1467.5
2813.06	1458.3
2826.3	1448
2839.51	1435.9
2852.69	1442.9
2865.86	1436.5
2879	1449.4
2892.12	1442.1
2905.22	1434.7
2918.29	1435.9
2931.35	1421.9
2944.38	1423.3
2957.38	1408.9
2970.37	1398.9
2983.33	1388.3
2996.27	1397.1
3009.19	1387.1
3022.09	1391.8
3034.97	1379.1
3047.82	1371.1
3060.65	1363.5
3073.46	1363.8
3086.25	1364.6
3099.02	1346.5
3111.77	1355.9
3124.49	1358.8
3137.19	1339.3
3149.87	1356.1
3162.53	1344.5
3175.17	1342.8
3187.79	1341.2
3200.39	1327.2
3212.96	1336.3
3225.52	1346.8
3238.05	1354.3
3250.56	1324.7
3263.05	1311.5
3275.52	1305.1
3287.97	1304.5
3300.4	1307.7
3312.81	1298.8
3325.2	1289.6
3337.57	1292.3
3349.92	1286.4
3362.24	1287.1
3374.55	1283.9
3386.83	1280
3399.1	1274.9
3411.35	1273.2
3423.57	1272.8
3435.78	1273.9
3447.96	1270.6
3460.13	1258.5
3472.27	1266.8
3484.4	1256.3
3496.5	1259
3508.59	1248.1
3520.66	1245.8
3532.7	1245.1
3544.73	1241.2
3556.74	1240.2
3568.73	1230.7
3580.7	1234.6
3592.64	1227.7
3604.57	1231.1
3616.48	1230.5
3628.38	1226.7
3640.25	1229.5
3652.1	1226.7
3663.94	1224.7
3675.75	1215.7
3687.55	1219.9
3699.32	1220.8
3711.08	1214
3722.82	1212
3734.54	1211.8
3746.24	1210.6
3757.92	1209.5
3769.59	1208.5
3775.41	1204.4