File: projects/Muestras y catálogo/Older versions/Raman_v1.0/Muestras_12-11-24/Data/Muestra 2_100x_zona2_verde.txt
-174.488	1148.5
-155.697	1148.1
-136.943	1148.7
-118.226	1147.9
-99.5451	1148
-80.9009	1148.6
-62.2932	1149.6
-43.7218	1149.2
-25.1866	1149.5
-6.6877	1148.7
11.7752	1147.7
30.202	1147.8
48.593	1146.9
66.9481	1149.2
85.2675	1325.7
103.551	1419
121.799	1407
140.012	1384.1
158.189	1375.9
176.332	1367.5
194.438	1364.3
212.51	1368.2
230.547	1401.3
248.548	1413.9
266.515	1413.3
284.447	1447.4
302.345	1534.5
320.208	1438.5
338.036	1416.3
355.83	1400.3
373.589	1387
391.314	1365.5
409.005	1377.5
426.662	1377
444.285	1361.7
461.874	1332.4
479.429	1359.2
496.95	1447.1
514.438	4603.9
531.892	2323.4
549.312	1455
566.699	1361.6
584.053	1339
601.373	1341.5
618.66	1366.1
635.914	1344.6
653.135	1343.1
670.324	1347.6
687.479	1333.2
704.601	1315
721.691	1314.6
738.748	1316.7
755.772	1333.6
772.764	1326.9
789.724	1321.8
806.651	1343.3
823.546	1348.2
840.409	1346.5
857.24	1334.3
874.039	1337.9
890.806	1352.6
907.541	1347
924.244	1399.1
940.915	1660.5
957.555	1679.6
974.164	1677.2
990.741	1550
1007.29	1421.4
1023.8	1369.2
1040.28	1322.1
1056.74	1317.6
1073.16	1317.2
1089.55	1318.6
1105.91	1322.1
1122.23	1321.4
1138.53	1327.7
1154.8	1323.2
1171.03	1316.9
1187.24	1321.7
1203.41	1331.1
1219.56	1333
1235.67	1336.7
1251.76	1348.2
1267.81	1347.6
1283.83	1355.6
1299.83	1354.1
1315.79	1365.6
1331.73	1375.6
1347.63	1377.8
1363.5	1382.4
1379.35	1363.6
1395.16	1365.4
1410.95	1368.3
1426.71	1372.7
1442.43	1371
1458.13	1355.7
1473.8	1368.4
1489.44	1366.2
1505.05	1361.7
1520.63	1370.3
1536.18	1383.5
1551.71	1413.2
1567.2	1556.9
1582.67	1936.8
1598.11	1514
1613.51	1409.5
1628.89	1369.2
1644.25	1368.7
1659.57	1345.8
1674.87	1342.6
1690.13	1321.6
1705.37	1332.8
1720.58	1339.6
1735.77	1331.9
1750.92	1328.6
1766.05	1340.2
1781.15	1335.3
1796.22	1336.7
1811.26	1326.6
1826.28	1334.3
1841.27	1343.2
1856.23	1332.6
1871.17	1332.1
1886.07	1343.7
1900.95	1340.4
1915.81	1324.2
1930.63	1331.4
1945.43	1333.3
1960.2	1333.8
1974.95	1337.4
1989.67	1340.9
2004.36	1336
2019.02	1336.6
2033.66	1331.9
2048.27	1325.1
2062.86	1331.9
2077.42	1332.5
2091.95	1331.9
2106.46	1331.4
2120.94	1325.7
2135.39	1328
2149.82	1325.6
2164.22	1324.6
2178.6	1332.7
2192.95	1333.6
2207.28	1324.7
2221.57	1330.1
2235.85	1325.1
2250.1	1324.2
2264.32	1315.5
2278.52	1326.4
2292.69	1316.4
2306.83	1317.1
2320.95	1318.8
2335.05	1321.8
2349.12	1322.7
2363.17	1323.3
2377.19	1322.6
2391.18	1321.6
2405.15	1317.5
2419.1	1328.6
2433.02	1341
2446.92	1361.8
2460.79	1343.7
2474.64	1337.2
2488.46	1331.8
2502.26	1329.4
2516.04	1319.8
2529.79	1325.5
2543.51	1325.4
2557.22	1325
2570.89	1321.3
2584.55	1327.5
2598.18	1334
2611.79	1354.4
2625.37	1394
2638.93	1513.5
2652.46	1817.9
2665.97	2129.5
2679.46	1999.6
2692.93	1671.7
2706.37	1468.1
2719.79	1392.7
2733.18	1338
2746.55	1329.5
2759.9	1310.5
2773.22	1316.9
2786.53	1299
2799.81	1300.5
2813.06	1296.7
2826.3	1288.7
2839.51	1295.3
2852.69	1296.7
2865.86	1289.8
2879	1288.7
2892.12	1287.3
2905.22	1279.6
2918.29	1277.6
2931.35	1274
2944.38	1280.2
2957.38	1275.7
2970.37	1271.5
2983.33	1268.5
2996.27	1269.4
3009.19	1263.6
3022.09	1264.7
3034.97	1258.1
3047.82	1263.4
3060.65	1257.8
3073.46	1254.7
3086.25	1249
3099.02	1261.4
3111.77	1255.2
3124.49	1251.3
3137.19	1251.5
3149.87	1252.3
3162.53	1249.2
3175.17	1236.7
3187.79	1247.8
3200.39	1237.7
3212.96	1242.8
3225.52	1261.6
3238.05	1269.4
3250.56	1253.3
3263.05	1239.7
3275.52	1232
3287.97	1231.3
3300.4	1232.1
3312.81	1227.9
3325.2	1223.1
3337.57	1226.8
3349.92	1217
3362.24	1215.9
3374.55	1220.3
3386.83	1222.2
3399.1	1223.9
3411.35	1213.7
3423.57	1216.8
3435.78	1210.5
3447.96	1205.2
3460.13	1207.1
3472.27	1211.8
3484.4	1206.7
3496.5	1207.5
3508.59	1200.1
3520.66	1205.3
3532.7	1199
3544.73	1203.3
3556.74	1204.1
3568.73	1197
3580.7	1198.3
3592.64	1200.8
3604.57	1197.6
3616.48	1196.5
3628.38	1190.5
3640.25	1188.1
3652.1	1186.2
3663.94	1190.8
3675.75	1189.4
3687.55	1185.3
3699.32	1183
3711.08	1184.7
3722.82	1184.5
3734.54	1183.1
3746.24	1179.1
3757.92	1183.6
3769.59	1180.6
3775.41	1183.5