File: Muestras y catálogo/Older versions/Raman_v1.0/Muestras_12-11-24/Data/Muestra 1_100x_zona2_rojo.txt
-174.488	1147.4
-155.697	1147.5
-136.943	1147.4
-118.226	1146.5
-99.5451	1146.7
-80.9009	1147.1
-62.2932	1149.8
-43.7218	1148.5
-25.1866	1148.7
-6.6877	1148.2
11.7752	1148.8
30.202	1148.3
48.593	1148.7
66.9481	1149.5
85.2675	1231.2
103.551	1276.5
121.799	1266.2
140.012	1250.9
158.189	1246
176.332	1241.9
194.438	1234.9
212.51	1237.1
230.547	1258.9
248.548	1265.4
266.515	1276.1
284.447	1281.9
302.345	1324
320.208	1278.3
338.036	1260.7
355.83	1244.5
373.589	1237.3
391.314	1229.4
409.005	1227.5
426.662	1229.5
444.285	1219.8
461.874	1200.5
479.429	1218.6
496.95	1274.3
514.438	3086.7
531.892	1773
549.312	1271.8
566.699	1211.8
584.053	1203.5
601.373	1201
618.66	1218.2
635.914	1204.7
653.135	1201.3
670.324	1206.6
687.479	1202.6
704.601	1185.7
721.691	1183.7
738.748	1185.2
755.772	1188.5
772.764	1192.4
789.724	1197.6
806.651	1199.6
823.546	1203.7
840.409	1193.7
857.24	1196.2
874.039	1194.9
890.806	1197.8
907.541	1201.2
924.244	1224.9
940.915	1381
957.555	1401
974.164	1406.2
990.741	1317.3
1007.29	1236.9
1023.8	1204.7
1040.28	1178.8
1056.74	1172
1073.16	1171.9
1089.55	1179.3
1105.91	1175.1
1122.23	1174.4
1138.53	1174.4
1154.8	1173.2
1171.03	1173
1187.24	1171
1203.41	1170.4
1219.56	1170.7
1235.67	1171.8
1251.76	1173.8
1267.81	1172.7
1283.83	1173.4
1299.83	1176.5
1315.79	1179.3
1331.73	1179.2
1347.63	1179.4
1363.5	1173.4
1379.35	1177.8
1395.16	1173.4
1410.95	1173.1
1426.71	1177.7
1442.43	1178.1
1458.13	1177.1
1473.8	1175.2
1489.44	1173
1505.05	1172.2
1520.63	1179.9
1536.18	1183.6
1551.71	1189.8
1567.2	1233.8
1582.67	1590.9
1598.11	1276.9
1613.51	1198.2
1628.89	1185.3
1644.25	1172.1
1659.57	1170.1
1674.87	1167.8
1690.13	1172.2
1705.37	1168.6
1720.58	1169.7
1735.77	1164.8
1750.92	1164.1
1766.05	1169.3
1781.15	1170.4
1796.22	1168.4
1811.26	1165.4
1826.28	1168
1841.27	1170.4
1856.23	1172
1871.17	1169.2
1886.07	1166.7
1900.95	1167.4
1915.81	1168.8
1930.63	1167.4
1945.43	1166.4
1960.2	1170.8
1974.95	1167.3
1989.67	1170.2
2004.36	1170.3
2019.02	1171.5
2033.66	1167.5
2048.27	1171.7
2062.86	1169.9
2077.42	1169.3
2091.95	1162.3
2106.46	1164.1
2120.94	1163.8
2135.39	1166.1
2149.82	1165.6
2164.22	1166.1
2178.6	1167
2192.95	1169.1
2207.28	1167.9
2221.57	1170.9
2235.85	1167.6
2250.1	1171.1
2264.32	1163.7
2278.52	1166.2
2292.69	1163
2306.83	1166.4
2320.95	1168.3
2335.05	1167.3
2349.12	1168.4
2363.17	1167.5
2377.19	1169.2
2391.18	1170.3
2405.15	1169.6
2419.1	1174.9
2433.02	1178.8
2446.92	1202
2460.79	1208.1
2474.64	1188.5
2488.46	1188
2502.26	1178.4
2516.04	1177.8
2529.79	1175.8
2543.51	1177.2
2557.22	1177.1
2570.89	1176.5
2584.55	1174.1
2598.18	1184.3
2611.79	1185.9
2625.37	1208.7
2638.93	1256.9
2652.46	1436.8
2665.97	1880.8
2679.46	2048.7
2692.93	1613.6
2706.37	1333.3
2719.79	1235.5
2733.18	1200.4
2746.55	1186.6
2759.9	1178.4
2773.22	1178
2786.53	1172.4
2799.81	1173.4
2813.06	1171.1
2826.3	1168.7
2839.51	1172.5
2852.69	1172.4
2865.86	1169.2
2879	1168.3
2892.12	1170.4
2905.22	1169.5
2918.29	1174.4
2931.35	1170
2944.38	1166.4
2957.38	1168.2
2970.37	1164.6
2983.33	1163.5
2996.27	1163.7
3009.19	1166.1
3022.09	1162.3
3034.97	1162.2
3047.82	1164.6
3060.65	1162
3073.46	1162.6
3086.25	1163.6
3099.02	1162
3111.77	1162.4
3124.49	1161.4
3137.19	1164.9
3149.87	1162.6
3162.53	1163.5
3175.17	1163
3187.79	1160
3200.39	1160.2
3212.96	1162.8
3225.52	1163.6
3238.05	1197.4
3250.56	1185.3
3263.05	1163.6
3275.52	1161.1
3287.97	1157.5
3300.4	1163
3312.81	1160
3325.2	1158.4
3337.57	1159.7
3349.92	1157.5
3362.24	1160.3
3374.55	1156.5
3386.83	1158.2
3399.1	1160.8
3411.35	1156.8
3423.57	1158.9
3435.78	1157.1
3447.96	1158.9
3460.13	1158.4
3472.27	1158.6
3484.4	1158.1
3496.5	1156.8
3508.59	1158.6
3520.66	1158.2
3532.7	1157.1
3544.73	1158.9
3556.74	1154.3
3568.73	1159.6
3580.7	1157.5
3592.64	1155.8
3604.57	1157.7
3616.48	1157.9
3628.38	1155.9
3640.25	1157.4
3652.1	1156.5
3663.94	1154.7
3675.75	1154.5
3687.55	1157.1
3699.32	1156.9
3711.08	1153.3
3722.82	1156.2
3734.54	1154.1
3746.24	1152.3
3757.92	1152
3769.59	1155
3775.41	1153.2