File: Muestras y catálogo/Older versions/Raman_v1.0/Muestras_12-11-24/Data/Muestra 2_100x_zona1_rojo.txt
-174.488	1150.1
-155.697	1147.2
-136.943	1149.2
-118.226	1148.5
-99.5451	1147.7
-80.9009	1149.1
-62.2932	1147.9
-43.7218	1149.6
-25.1866	1147.9
-6.6877	1147.7
11.7752	1149.7
30.202	1147.9
48.593	1147.4
66.9481	1146.9
85.2675	1345.5
103.551	1463.1
121.799	1461.7
140.012	1402.5
158.189	1413.5
176.332	1392.8
194.438	1378.1
212.51	1393.7
230.547	1421.9
248.548	1431.9
266.515	1448.2
284.447	1453
302.345	1500.9
320.208	1442.4
338.036	1434.6
355.83	1415.3
373.589	1414.7
391.314	1399.2
409.005	1401.8
426.662	1396.6
444.285	1389.6
461.874	1359.7
479.429	1374.5
496.95	1440.5
514.438	3645.3
531.892	2030.6
549.312	1440.1
566.699	1386
584.053	1372.3
601.373	1361.8
618.66	1382.5
635.914	1369.3
653.135	1369.6
670.324	1376.7
687.479	1357.3
704.601	1359.9
721.691	1355.2
738.748	1350.2
755.772	1354.9
772.764	1368.8
789.724	1364.9
806.651	1365.5
823.546	1378.7
840.409	1375.1
857.24	1385.5
874.039	1377.3
890.806	1377.4
907.541	1385.9
924.244	1419.8
940.915	1621
957.555	1648.9
974.164	1658.8
990.741	1561.2
1007.29	1453.1
1023.8	1424.8
1040.28	1393.1
1056.74	1394.6
1073.16	1404.9
1089.55	1408.5
1105.91	1432.2
1122.23	1442.6
1138.53	1447
1154.8	1447.1
1171.03	1457.1
1187.24	1471.6
1203.41	1488.8
1219.56	1519
1235.67	1517.8
1251.76	1535.6
1267.81	1558.4
1283.83	1575.2
1299.83	1607.3
1315.79	1624.8
1331.73	1704.3
1347.63	1741.4
1363.5	1675.5
1379.35	1644.5
1395.16	1638.6
1410.95	1668.2
1426.71	1658
1442.43	1650.2
1458.13	1645.2
1473.8	1658.2
1489.44	1672.9
1505.05	1682.2
1520.63	1727.6
1536.18	1792.8
1551.71	2003.5
1567.2	3093.8
1582.67	3352.6
1598.11	2089.8
1613.51	1775.5
1628.89	1596.1
1644.25	1511.1
1659.57	1458
1674.87	1431.4
1690.13	1418.7
1705.37	1416.3
1720.58	1394.5
1735.77	1383.5
1750.92	1390.6
1766.05	1388
1781.15	1387.8
1796.22	1382.1
1811.26	1381.1
1826.28	1378
1841.27	1376.1
1856.23	1371.7
1871.17	1381.3
1886.07	1375.5
1900.95	1373.1
1915.81	1366.6
1930.63	1361.4
1945.43	1377.8
1960.2	1362.9
1974.95	1367.7
1989.67	1370
2004.36	1372
2019.02	1372.7
2033.66	1365.3
2048.27	1366.1
2062.86	1349.9
2077.42	1365.8
2091.95	1361.8
2106.46	1355.4
2120.94	1348.9
2135.39	1345.3
2149.82	1352.8
2164.22	1367.2
2178.6	1347.8
2192.95	1355.4
2207.28	1353.7
2221.57	1348.6
2235.85	1345.4
2250.1	1356.7
2264.32	1349.2
2278.52	1340.4
2292.69	1352.7
2306.83	1354.1
2320.95	1354.9
2335.05	1346.4
2349.12	1357.4
2363.17	1342.5
2377.19	1361.2
2391.18	1351.8
2405.15	1365.1
2419.1	1382.2
2433.02	1425.2
2446.92	1422.9
2460.79	1407.6
2474.64	1397.3
2488.46	1383.2
2502.26	1372.5
2516.04	1375.6
2529.79	1370.3
2543.51	1372.8
2557.22	1374.2
2570.89	1386.8
2584.55	1385.6
2598.18	1401.7
2611.79	1434
2625.37	1484.4
2638.93	1580.4
2652.46	1843.4
2665.97	2381.8
2679.46	2914.4
2692.93	2666.9
2706.37	2010
2719.79	1664.3
2733.18	1505.2
2746.55	1441.8
2759.9	1400.1
2773.22	1386
2786.53	1367.2
2799.81	1363.3
2813.06	1348.6
2826.3	1349.7
2839.51	1338.1
2852.69	1338
2865.86	1323.4
2879	1330.3
2892.12	1324
2905.22	1323
2918.29	1321.4
2931.35	1314.5
2944.38	1311.4
2957.38	1300.9
2970.37	1299.2
2983.33	1287.6
2996.27	1291.7
3009.19	1289.4
3022.09	1275.5
3034.97	1277
3047.82	1279.6
3060.65	1266.9
3073.46	1266.8
3086.25	1271.2
3099.02	1266.6
3111.77	1263.7
3124.49	1255.1
3137.19	1262.9
3149.87	1262.2
3162.53	1260.1
3175.17	1259.3
3187.79	1254.1
3200.39	1255.6
3212.96	1259.4
3225.52	1286.2
3238.05	1279.2
3250.56	1247.5
3263.05	1240.4
3275.52	1233.1
3287.97	1220.5
3300.4	1221.4
3312.81	1225.6
3325.2	1219
3337.57	1225.2
3349.92	1220.7
3362.24	1218.9
3374.55	1220.2
3386.83	1214.9
3399.1	1216.2
3411.35	1212.8
3423.57	1212.8
3435.78	1212.4
3447.96	1210.2
3460.13	1202.3
3472.27	1212.3
3484.4	1205.1
3496.5	1204.3
3508.59	1201.9
3520.66	1201.3
3532.7	1198.1
3544.73	1196.3
3556.74	1200.1
3568.73	1195.6
3580.7	1192.3
3592.64	1193.8
3604.57	1190.6
3616.48	1192.4
3628.38	1185
3640.25	1188.9
3652.1	1186.1
3663.94	1182.9
3675.75	1181.8
3687.55	1187.5
3699.32	1179.6
3711.08	1181.5
3722.82	1180.6
3734.54	1177.2
3746.24	1179.4
3757.92	1180
3769.59	1177.2
3775.41	1177.8