File: Muestras y catálogo/Older versions/Raman_v1.0/Muestras_12-11-24/Data/Muestra 2_100x_zona1_rosa.txt
-174.488	1147.7
-155.697	1145.9
-136.943	1147.9
-118.226	1146.8
-99.5451	1146
-80.9009	1149.1
-62.2932	1150.1
-43.7218	1148.5
-25.1866	1147.4
-6.6877	1147.3
11.7752	1148.2
30.202	1149.4
48.593	1148.4
66.9481	1149.9
85.2675	1322.8
103.551	1409.8
121.799	1392.3
140.012	1367.1
158.189	1342.2
176.332	1330.2
194.438	1318.8
212.51	1327.3
230.547	1357.4
248.548	1372.9
266.515	1383.6
284.447	1416.3
302.345	1509.1
320.208	1403.6
338.036	1372.3
355.83	1351.7
373.589	1322.8
391.314	1304.5
409.005	1306
426.662	1313.7
444.285	1276.4
461.874	1246.1
479.429	1276.7
496.95	1391.4
514.438	5371.8
531.892	2513.3
549.312	1399.2
566.699	1288.3
584.053	1255.3
601.373	1257.5
618.66	1283
635.914	1253.4
653.135	1256.7
670.324	1266.5
687.479	1248.9
704.601	1226.8
721.691	1210.4
738.748	1223.5
755.772	1226.4
772.764	1225
789.724	1231.6
806.651	1233
823.546	1253.8
840.409	1234.4
857.24	1241.8
874.039	1242.9
890.806	1252.2
907.541	1257.6
924.244	1298.3
940.915	1649.7
957.555	1647.6
974.164	1679.4
990.741	1499.5
1007.29	1318.5
1023.8	1255.4
1040.28	1197.6
1056.74	1182.7
1073.16	1183.9
1089.55	1181.3
1105.91	1179
1122.23	1179.1
1138.53	1181.4
1154.8	1177.2
1171.03	1175.2
1187.24	1173.7
1203.41	1171.2
1219.56	1172.2
1235.67	1176.6
1251.76	1174.9
1267.81	1174.7
1283.83	1177.8
1299.83	1174.6
1315.79	1170.8
1331.73	1173.4
1347.63	1173
1363.5	1171.3
1379.35	1171.2
1395.16	1173.5
1410.95	1175.5
1426.71	1175
1442.43	1175.3
1458.13	1174.4
1473.8	1168.8
1489.44	1171.6
1505.05	1163.7
1520.63	1165.8
1536.18	1165.7
1551.71	1166.4
1567.2	1171.7
1582.67	1170.9
1598.11	1170.2
1613.51	1166
1628.89	1167.5
1644.25	1169
1659.57	1168.8
1674.87	1169.9
1690.13	1167.4
1705.37	1169
1720.58	1166.7
1735.77	1166.4
1750.92	1169.9
1766.05	1168.9
1781.15	1168.8
1796.22	1167.4
1811.26	1166.4
1826.28	1164.1
1841.27	1164.1
1856.23	1166.6
1871.17	1163.9
1886.07	1165.9
1900.95	1163.7
1915.81	1164
1930.63	1169
1945.43	1164.6
1960.2	1164.3
1974.95	1164.5
1989.67	1164.4
2004.36	1167.7
2019.02	1165.6
2033.66	1165.3
2048.27	1162.7
2062.86	1163.7
2077.42	1163
2091.95	1166.9
2106.46	1168.1
2120.94	1160.7
2135.39	1162.9
2149.82	1166.1
2164.22	1162.5
2178.6	1163.4
2192.95	1164.5
2207.28	1166.9
2221.57	1166.2
2235.85	1164.6
2250.1	1166.2
2264.32	1166.2
2278.52	1164.9
2292.69	1165.2
2306.83	1165.5
2320.95	1162.9
2335.05	1164.6
2349.12	1162.1
2363.17	1161.6
2377.19	1164.1
2391.18	1165.6
2405.15	1160.6
2419.1	1166.1
2433.02	1162
2446.92	1165.8
2460.79	1164.6
2474.64	1164.3
2488.46	1165.6
2502.26	1167.8
2516.04	1166
2529.79	1163.4
2543.51	1160
2557.22	1167.8
2570.89	1162.2
2584.55	1164
2598.18	1163.6
2611.79	1162.1
2625.37	1162.4
2638.93	1162
2652.46	1162
2665.97	1164.6
2679.46	1162.6
2692.93	1163
2706.37	1166.9
2719.79	1162.7
2733.18	1161.1
2746.55	1158
2759.9	1164.6
2773.22	1162.6
2786.53	1164.1
2799.81	1163.1
2813.06	1163.2
2826.3	1163.6
2839.51	1160.8
2852.69	1161.9
2865.86	1163.4
2879	1160.5
2892.12	1163.9
2905.22	1160.8
2918.29	1163.1
2931.35	1160.9
2944.38	1161.1
2957.38	1160.4
2970.37	1163.4
2983.33	1157
2996.27	1160.8
3009.19	1163.6
3022.09	1159.8
3034.97	1161.8
3047.82	1162.3
3060.65	1159.9
3073.46	1160.3
3086.25	1162.2
3099.02	1161.9
3111.77	1160.9
3124.49	1157.5
3137.19	1159.2
3149.87	1158.1
3162.53	1158.7
3175.17	1161.5
3187.79	1162.8
3200.39	1162.1
3212.96	1159.6
3225.52	1158.2
3238.05	1157.6
3250.56	1156.7
3263.05	1159.7
3275.52	1158.2
3287.97	1157
3300.4	1158.2
3312.81	1159.2
3325.2	1159.8
3337.57	1155.6
3349.92	1154
3362.24	1154.8
3374.55	1156.9
3386.83	1159.2
3399.1	1157.2
3411.35	1157
3423.57	1157.4
3435.78	1156.6
3447.96	1159.2
3460.13	1153.6
3472.27	1153.1
3484.4	1158
3496.5	1157.2
3508.59	1153.9
3520.66	1154
3532.7	1155.1
3544.73	1158.3
3556.74	1154.6
3568.73	1153.9
3580.7	1152.7
3592.64	1153.3
3604.57	1153.6
3616.48	1155.1
3628.38	1154.3
3640.25	1153.6
3652.1	1154.5
3663.94	1154.9
3675.75	1158
3687.55	1153.4
3699.32	1153.2
3711.08	1153.3
3722.82	1151.8
3734.54	1152.1
3746.24	1157.9
3757.92	1153.5
3769.59	1154.4
3775.41	1150.2