File: Muestras y catálogo/Older versions/Raman_v1.0/Muestras_12-11-24/Data/Muestra 1_100x_zona1_rojo.txt
-174.488	1149.3
-155.697	1148.5
-136.943	1148
-118.226	1147.6
-99.5451	1147.7
-80.9009	1148.4
-62.2932	1149.1
-43.7218	1149.1
-25.1866	1146
-6.6877	1148.6
11.7752	1150.1
30.202	1148.4
48.593	1148.6
66.9481	1149.5
85.2675	1299.4
103.551	1370.8
121.799	1351.4
140.012	1327.5
158.189	1317.5
176.332	1308
194.438	1302
212.51	1307.8
230.547	1337.2
248.548	1344.8
266.515	1363.8
284.447	1378.7
302.345	1461.2
320.208	1384.1
338.036	1338.6
355.83	1319.6
373.589	1314.6
391.314	1296.3
409.005	1288.3
426.662	1293.7
444.285	1270.3
461.874	1240.7
479.429	1269.1
496.95	1359.3
514.438	4636.6
531.892	2348.3
549.312	1383.5
566.699	1272.1
584.053	1252.1
601.373	1245.7
618.66	1270.4
635.914	1247.1
653.135	1250.2
670.324	1254.1
687.479	1238.6
704.601	1217
721.691	1210.8
738.748	1211.1
755.772	1220.4
772.764	1225.6
789.724	1223.3
806.651	1238.1
823.546	1247.1
840.409	1235.3
857.24	1238.7
874.039	1235.9
890.806	1238.2
907.541	1240.3
924.244	1292.8
940.915	1596.2
957.555	1615.7
974.164	1612.1
990.741	1477.8
1007.29	1311.4
1023.8	1247.7
1040.28	1203
1056.74	1197
1073.16	1194
1089.55	1187.8
1105.91	1193.3
1122.23	1186.8
1138.53	1187.5
1154.8	1188.1
1171.03	1182.3
1187.24	1179.9
1203.41	1183.7
1219.56	1188
1235.67	1180.9
1251.76	1185.9
1267.81	1186.3
1283.83	1184.4
1299.83	1186.9
1315.79	1188.5
1331.73	1190.5
1347.63	1196.2
1363.5	1186.7
1379.35	1186.4
1395.16	1187.4
1410.95	1188.9
1426.71	1183.3
1442.43	1189.4
1458.13	1188.4
1473.8	1186.8
1489.44	1182.4
1505.05	1183.2
1520.63	1185.9
1536.18	1192
1551.71	1204.4
1567.2	1255.8
1582.67	1606.1
1598.11	1267.7
1613.51	1203.9
1628.89	1190.7
1644.25	1182.8
1659.57	1182.8
1674.87	1181.2
1690.13	1182.9
1705.37	1176.3
1720.58	1177.6
1735.77	1173.8
1750.92	1179.1
1766.05	1174.7
1781.15	1176.7
1796.22	1173
1811.26	1178.5
1826.28	1175.7
1841.27	1176.4
1856.23	1182.8
1871.17	1181.8
1886.07	1181.5
1900.95	1178.5
1915.81	1173.9
1930.63	1173.7
1945.43	1172.3
1960.2	1175.6
1974.95	1176.6
1989.67	1176.7
2004.36	1176.3
2019.02	1174.7
2033.66	1177.2
2048.27	1175.5
2062.86	1174.6
2077.42	1173.9
2091.95	1175.4
2106.46	1173.3
2120.94	1177
2135.39	1170.1
2149.82	1172.5
2164.22	1173
2178.6	1171.2
2192.95	1174.7
2207.28	1174.9
2221.57	1174.2
2235.85	1172.7
2250.1	1173
2264.32	1170.7
2278.52	1175.2
2292.69	1173.5
2306.83	1173.6
2320.95	1172.1
2335.05	1177.1
2349.12	1173
2363.17	1172.4
2377.19	1173.1
2391.18	1179.2
2405.15	1175.1
2419.1	1176.6
2433.02	1181.7
2446.92	1200.3
2460.79	1204.3
2474.64	1195
2488.46	1186.7
2502.26	1184.2
2516.04	1182.9
2529.79	1179
2543.51	1177.8
2557.22	1182
2570.89	1180.8
2584.55	1181.6
2598.18	1180.1
2611.79	1191.9
2625.37	1213.2
2638.93	1250.9
2652.46	1396.2
2665.97	1742.3
2679.46	1831.9
2692.93	1495.1
2706.37	1291.2
2719.79	1221.5
2733.18	1196.2
2746.55	1185.4
2759.9	1182
2773.22	1179.6
2786.53	1178.5
2799.81	1177.8
2813.06	1174.9
2826.3	1170
2839.51	1177.3
2852.69	1170.5
2865.86	1175.6
2879	1172.7
2892.12	1168.9
2905.22	1172.3
2918.29	1171.4
2931.35	1168.8
2944.38	1169.8
2957.38	1165.8
2970.37	1164.9
2983.33	1168.9
2996.27	1169.7
3009.19	1166.5
3022.09	1164.7
3034.97	1169
3047.82	1164.6
3060.65	1168.2
3073.46	1168
3086.25	1165.6
3099.02	1167.8
3111.77	1166.5
3124.49	1165.5
3137.19	1164.8
3149.87	1164.7
3162.53	1164.9
3175.17	1165.8
3187.79	1163.5
3200.39	1163.1
3212.96	1165.5
3225.52	1168.4
3238.05	1188
3250.56	1181.4
3263.05	1164.3
3275.52	1160.8
3287.97	1159.7
3300.4	1162
3312.81	1162
3325.2	1159.1
3337.57	1158
3349.92	1163.3
3362.24	1158.9
3374.55	1158.1
3386.83	1162.8
3399.1	1159.6
3411.35	1159.5
3423.57	1158.7
3435.78	1158.7
3447.96	1155.8
3460.13	1159.8
3472.27	1158.2
3484.4	1158.4
3496.5	1158
3508.59	1155.1
3520.66	1156.9
3532.7	1154.9
3544.73	1160
3556.74	1157.4
3568.73	1158.5
3580.7	1154.3
3592.64	1154
3604.57	1156.1
3616.48	1153.5
3628.38	1156.8
3640.25	1153.6
3652.1	1158.5
3663.94	1154.1
3675.75	1154.9
3687.55	1155
3699.32	1156.7
3711.08	1154.6
3722.82	1155.4
3734.54	1155.7
3746.24	1153.1
3757.92	1154.9
3769.59	1155.5
3775.41	1151.5