File: Muestras y catálogo/Older versions/Raman_v1.0/Muestras_12-11-24/Data/Muestra 2_100x_zona2_rosa.txt
-174.488	1146.8
-155.697	1147.3
-136.943	1146.3
-118.226	1148.6
-99.5451	1148.3
-80.9009	1147.9
-62.2932	1147.3
-43.7218	1148.8
-25.1866	1147.9
-6.6877	1148.6
11.7752	1148.6
30.202	1147.1
48.593	1147
66.9481	1148.2
85.2675	1321.1
103.551	1413.3
121.799	1395.7
140.012	1359
158.189	1347
176.332	1320.8
194.438	1321.4
212.51	1324.1
230.547	1370.2
248.548	1376.1
266.515	1382
284.447	1417.8
302.345	1507.6
320.208	1399
338.036	1366.3
355.83	1340.6
373.589	1318.8
391.314	1314.4
409.005	1304.8
426.662	1307.3
444.285	1285.6
461.874	1252.5
479.429	1282.3
496.95	1379.2
514.438	5230.7
531.892	2459.6
549.312	1397.1
566.699	1292.1
584.053	1255
601.373	1257.7
618.66	1284.5
635.914	1264.6
653.135	1252.9
670.324	1260.5
687.479	1243.1
704.601	1220.6
721.691	1213.9
738.748	1216.4
755.772	1219.2
772.764	1222.7
789.724	1223.1
806.651	1240.8
823.546	1251.9
840.409	1240.9
857.24	1237.8
874.039	1245.1
890.806	1241.7
907.541	1252.2
924.244	1292.4
940.915	1641.3
957.555	1634.4
974.164	1670.2
990.741	1488.6
1007.29	1306.6
1023.8	1248.2
1040.28	1197.3
1056.74	1183.1
1073.16	1189.2
1089.55	1181.2
1105.91	1184.2
1122.23	1180.2
1138.53	1177.6
1154.8	1177.9
1171.03	1175.2
1187.24	1174.7
1203.41	1171
1219.56	1173.8
1235.67	1176.1
1251.76	1174.3
1267.81	1174.1
1283.83	1178.9
1299.83	1173.1
1315.79	1178.6
1331.73	1176.7
1347.63	1175.1
1363.5	1174
1379.35	1173.3
1395.16	1174
1410.95	1170.6
1426.71	1177.2
1442.43	1177
1458.13	1178.7
1473.8	1170.8
1489.44	1170.6
1505.05	1177.4
1520.63	1167.4
1536.18	1169.7
1551.71	1171
1567.2	1171.8
1582.67	1168.3
1598.11	1174.8
1613.51	1168.6
1628.89	1167
1644.25	1170.4
1659.57	1168.1
1674.87	1170.2
1690.13	1168.4
1705.37	1169
1720.58	1164.7
1735.77	1165.1
1750.92	1168.2
1766.05	1169
1781.15	1168.2
1796.22	1165.4
1811.26	1164.2
1826.28	1169.4
1841.27	1166.3
1856.23	1169.9
1871.17	1167
1886.07	1168.6
1900.95	1165.3
1915.81	1172.7
1930.63	1170.3
1945.43	1167.9
1960.2	1164.8
1974.95	1166.6
1989.67	1165.3
2004.36	1168.4
2019.02	1166.8
2033.66	1164.5
2048.27	1166
2062.86	1166.3
2077.42	1165.1
2091.95	1166.2
2106.46	1164.3
2120.94	1164.3
2135.39	1162.7
2149.82	1163.8
2164.22	1169
2178.6	1165.1
2192.95	1163.1
2207.28	1164.8
2221.57	1169.3
2235.85	1163.7
2250.1	1168.2
2264.32	1163
2278.52	1165
2292.69	1165
2306.83	1167.6
2320.95	1163.3
2335.05	1166
2349.12	1163.8
2363.17	1165.2
2377.19	1167.3
2391.18	1167.9
2405.15	1166.1
2419.1	1166.3
2433.02	1170
2446.92	1163.6
2460.79	1162.8
2474.64	1166.8
2488.46	1164.3
2502.26	1166.9
2516.04	1167.9
2529.79	1164.3
2543.51	1164.5
2557.22	1168.1
2570.89	1166.4
2584.55	1167.7
2598.18	1165.4
2611.79	1166.3
2625.37	1162.9
2638.93	1164.4
2652.46	1165.9
2665.97	1164.5
2679.46	1164.2
2692.93	1165.9
2706.37	1166
2719.79	1165.6
2733.18	1164.7
2746.55	1166.3
2759.9	1162.2
2773.22	1162.8
2786.53	1165.8
2799.81	1165.8
2813.06	1165.1
2826.3	1163.3
2839.51	1162.7
2852.69	1165.7
2865.86	1162.5
2879	1164.2
2892.12	1161.8
2905.22	1161.7
2918.29	1164.3
2931.35	1162.4
2944.38	1163.2
2957.38	1167
2970.37	1160.8
2983.33	1159.8
2996.27	1164.3
3009.19	1162.5
3022.09	1162.6
3034.97	1161.4
3047.82	1163.2
3060.65	1164.1
3073.46	1159.8
3086.25	1160
3099.02	1160.5
3111.77	1162.7
3124.49	1161.9
3137.19	1161.3
3149.87	1162
3162.53	1161.8
3175.17	1160
3187.79	1163.9
3200.39	1159.2
3212.96	1162
3225.52	1164.3
3238.05	1158.3
3250.56	1159.1
3263.05	1156.2
3275.52	1159.9
3287.97	1163
3300.4	1161.6
3312.81	1159.6
3325.2	1159.8
3337.57	1158.6
3349.92	1159.3
3362.24	1155.8
3374.55	1159.4
3386.83	1160.8
3399.1	1157.9
3411.35	1155.8
3423.57	1155.4
3435.78	1156.8
3447.96	1159.2
3460.13	1154.5
3472.27	1155.7
3484.4	1158.5
3496.5	1155.2
3508.59	1159.4
3520.66	1155.1
3532.7	1157.2
3544.73	1155.4
3556.74	1156.4
3568.73	1154
3580.7	1155.6
3592.64	1155.3
3604.57	1154.4
3616.48	1154
3628.38	1154.8
3640.25	1153
3652.1	1155
3663.94	1155.9
3675.75	1152
3687.55	1156.4
3699.32	1156.8
3711.08	1153.1
3722.82	1153.8
3734.54	1154.6
3746.24	1156
3757.92	1153.2
3769.59	1156.1
3775.41	1149.3