File: espectroscopia_raman/Muestras_12.11.24_tests/Data/Muestra 2_100x_zona1_azul.txt
-174.488	1148.3
-155.697	1149.5
-136.943	1148.3
-118.226	1148.2
-99.5451	1146.6
-80.9009	1147.1
-62.2932	1149.6
-43.7218	1147.1
-25.1866	1147.7
-6.6877	1148
11.7752	1150.5
30.202	1149.9
48.593	1147.7
66.9481	1150.9
85.2675	1306.3
103.551	1402.6
121.799	1393.6
140.012	1372.9
158.189	1353.5
176.332	1364
194.438	1359.3
212.51	1373.1
230.547	1382.2
248.548	1398.2
266.515	1409.3
284.447	1402
302.345	1454.8
320.208	1397
338.036	1389.3
355.83	1379.8
373.589	1371.1
391.314	1359.7
409.005	1369
426.662	1377.9
444.285	1362.3
461.874	1355.3
479.429	1350.3
496.95	1423
514.438	3255
531.892	1929.6
549.312	1418.7
566.699	1372
584.053	1353.1
601.373	1357.5
618.66	1375
635.914	1361.8
653.135	1369.4
670.324	1363.4
687.479	1375.2
704.601	1360.8
721.691	1353.2
738.748	1360
755.772	1365.9
772.764	1364.3
789.724	1368.9
806.651	1373.3
823.546	1378.1
840.409	1374.6
857.24	1374.4
874.039	1384.4
890.806	1390
907.541	1396.2
924.244	1417.5
940.915	1584.6
957.555	1605.5
974.164	1612.4
990.741	1529.2
1007.29	1436.8
1023.8	1420.5
1040.28	1402
1056.74	1398.9
1073.16	1403.8
1089.55	1413.1
1105.91	1395.9
1122.23	1418.4
1138.53	1433.1
1154.8	1431.1
1171.03	1436.9
1187.24	1447.5
1203.41	1458.6
1219.56	1464.7
1235.67	1477.4
1251.76	1493.7
1267.81	1512.8
1283.83	1517.2
1299.83	1535.6
1315.79	1553.4
1331.73	1627.4
1347.63	1648.2
1363.5	1592.4
1379.35	1566.5
1395.16	1565.3
1410.95	1542.1
1426.71	1533.6
1442.43	1556
1458.13	1542.1
1473.8	1559
1489.44	1556.6
1505.05	1558
1520.63	1590.8
1536.18	1636.8
1551.71	1759.7
1567.2	2258.5
1582.67	2258.9
1598.11	1798.2
1613.51	1649.4
1628.89	1557.6
1644.25	1501.9
1659.57	1467.7
1674.87	1456.5
1690.13	1453.3
1705.37	1437.7
1720.58	1438.8
1735.77	1434.7
1750.92	1437.8
1766.05	1428.5
1781.15	1417
1796.22	1434.1
1811.26	1416.8
1826.28	1422.6
1841.27	1425.5
1856.23	1418.6
1871.17	1429.5
1886.07	1424.7
1900.95	1431.8
1915.81	1427.3
1930.63	1427.6
1945.43	1424.2
1960.2	1412.3
1974.95	1414.6
1989.67	1424.5
2004.36	1424.9
2019.02	1429.1
2033.66	1423.2
2048.27	1424.1
2062.86	1418.2
2077.42	1420.3
2091.95	1422.8
2106.46	1414.9
2120.94	1420.8
2135.39	1411.6
2149.82	1403.9
2164.22	1422.7
2178.6	1417.9
2192.95	1427.1
2207.28	1419.5
2221.57	1421.1
2235.85	1412.9
2250.1	1421.7
2264.32	1405.1
2278.52	1423
2292.69	1411.7
2306.83	1416.4
2320.95	1408.3
2335.05	1421.3
2349.12	1417.1
2363.17	1413.8
2377.19	1421.8
2391.18	1427.8
2405.15	1434.9
2419.1	1430.4
2433.02	1445.5
2446.92	1439
2460.79	1441.9
2474.64	1437.3
2488.46	1421.2
2502.26	1430.2
2516.04	1427.4
2529.79	1430
2543.51	1429.6
2557.22	1427.3
2570.89	1423
2584.55	1450.7
2598.18	1448.5
2611.79	1459.5
2625.37	1504.7
2638.93	1578.8
2652.46	1711.5
2665.97	1913.1
2679.46	1984.4
2692.93	1909.8
2706.37	1716
2719.79	1567.5
2733.18	1489.6
2746.55	1452.2
2759.9	1433.1
2773.22	1412
2786.53	1409.2
2799.81	1391.3
2813.06	1394
2826.3	1377.6
2839.51	1389.7
2852.69	1367.2
2865.86	1373.3
2879	1382.7
2892.12	1376.1
2905.22	1356.9
2918.29	1364.7
2931.35	1358.4
2944.38	1359.9
2957.38	1364.6
2970.37	1356.5
2983.33	1357.4
2996.27	1343.7
3009.19	1344.4
3022.09	1338.5
3034.97	1332.5
3047.82	1320.6
3060.65	1326.7
3073.46	1324.3
3086.25	1315.5
3099.02	1319.9
3111.77	1308.9
3124.49	1309.2
3137.19	1311.6
3149.87	1303.9
3162.53	1313.1
3175.17	1303.8
3187.79	1302.5
3200.39	1298.8
3212.96	1310
3225.52	1317.6
3238.05	1304.3
3250.56	1297.4
3263.05	1294.8
3275.52	1282.1
3287.97	1278.8
3300.4	1277.5
3312.81	1274.9
3325.2	1279.5
3337.57	1270.9
3349.92	1260.7
3362.24	1270.2
3374.55	1264
3386.83	1261
3399.1	1259.8
3411.35	1251.5
3423.57	1259
3435.78	1254.3
3447.96	1244
3460.13	1244
3472.27	1243.7
3484.4	1243.7
3496.5	1237.1
3508.59	1235.1
3520.66	1232.7
3532.7	1233.6
3544.73	1235.7
3556.74	1233.8
3568.73	1225.4
3580.7	1225.9
3592.64	1224.3
3604.57	1221.4
3616.48	1220.4
3628.38	1218.9
3640.25	1214.2
3652.1	1216.9
3663.94	1212.4
3675.75	1212.5
3687.55	1212.7
3699.32	1207.1
3711.08	1205
3722.82	1210.5
3734.54	1206.1
3746.24	1202.9
3757.92	1201.5
3769.59	1200.8
3775.41	1202.8